#Wave		#Intensity
3498.840820	480.730682
3497.341797	453.398193
3495.842773	437.178925
3494.342773	480.420044
3492.841797	441.715088
3491.340820	452.812317
3489.839844	438.219147
3488.337891	414.007233
3486.835938	434.727448
3485.333008	473.074219
3483.829102	429.636871
3482.325195	464.755127
3480.821289	453.390137
3479.316406	434.024597
3477.811523	485.117645
3476.305664	499.365356
3474.798828	428.803131
3473.292969	423.865784
3471.785156	399.743866
3470.277344	437.977356
3468.769531	441.031311
3467.260742	428.109039
3465.751953	467.892883
3464.242188	400.692993
3462.731445	588.875610
3461.220703	445.103027
3459.709961	448.148376
3458.198242	428.871216
3456.686523	465.389465
3455.173828	428.592987
3453.660156	431.639435
3452.147461	375.770660
3450.632812	428.175842
3449.118164	418.489532
3447.603516	443.804840
3446.087891	405.496338
3444.571289	476.899597
3443.055664	422.713593
3441.538086	405.101318
3440.020508	365.266754
3438.502930	431.827271
3436.984375	509.454041
3435.464844	423.613739
3433.945312	440.922577
3432.425781	442.364746
3430.905273	401.010315
3429.383789	495.950195
3427.862305	381.741577
3426.340820	411.703369
3424.818359	395.739807
3423.294922	439.919434
3421.771484	409.719574
3420.248047	428.563141
3418.723633	441.070770
3417.198242	436.185974
3415.672852	342.831604
3414.147461	383.783142
3412.621094	378.921570
3411.093750	408.786285
3409.566406	384.985870
3408.038086	443.220337
3406.509766	455.690094
3404.981445	444.507629
3403.451172	401.817322
3401.921875	378.057648
3400.391602	401.555206
3398.860352	484.857452
3397.329102	407.587982
3395.796875	420.040436
3394.264648	382.159210
3392.731445	421.338379
3391.198242	469.921783
3389.664062	405.351929
3388.129883	416.213867
3386.594727	485.162537
3385.059570	362.575806
3383.523438	448.756683
3381.987305	481.549927
3380.450195	359.084320
3378.913086	445.181702
3377.375000	419.963654
3375.835938	473.087860
3374.297852	455.707092
3372.757812	388.241882
3371.217773	388.114868
3369.677734	417.712738
3368.136719	447.291168
3366.594727	378.353271
3365.052734	457.938904
3363.510742	418.728455
3361.967773	381.105530
3360.423828	426.261200
3358.879883	401.147430
3357.335938	404.136719
3355.791016	447.680450
3354.245117	421.024750
3352.699219	392.827637
3351.152344	444.123718
3349.605469	425.284271
3348.057617	384.654816
3346.509766	421.891754
3344.960938	396.852814
3343.412109	404.501465
3341.862305	385.705566
3340.312500	430.666840
3338.761719	419.645782
3337.210938	385.325897
3335.659180	424.029938
3334.107422	465.813965
3332.554688	409.781647
3331.001953	355.337769
3329.448242	404.858887
3327.893555	441.942047
3326.338867	398.392212
3324.784180	444.750885
3323.228516	390.384583
3321.671875	410.388519
3320.115234	414.897919
3318.557617	397.737671
3317.000000	414.625031
3315.442383	380.463440
3313.882812	423.628784
3312.324219	445.127502
3310.763672	403.264008
3309.204102	432.477997
3307.642578	398.366364
3306.082031	433.736755
3304.519531	413.534424
3302.957031	453.503967
3301.394531	456.438629
3299.831055	388.461578
3298.267578	459.219849
3296.703125	471.392487
3295.137695	384.997620
3293.572266	441.831543
3292.006836	347.808350
3290.439453	373.847595
3288.873047	406.021423
3287.305664	385.900604
3285.737305	393.457977
3284.168945	396.401001
3282.599609	413.165405
3281.030273	402.281036
3279.459961	397.543488
3277.889648	374.396057
3276.318359	409.552155
3274.746094	427.817627
3273.173828	404.682953
3271.601562	410.678772
3270.028320	387.564880
3268.455078	355.277985
3266.879883	405.679077
3265.305664	371.877075
3263.730469	434.478027
3262.154297	426.687592
3260.578125	359.277466
3259.000977	424.877014
3257.423828	444.598175
3255.845703	420.013885
3254.267578	447.357574
3252.688477	460.946289
3251.109375	418.071075
3249.529297	408.780823
3247.948242	388.823090
3246.367188	423.752991
3244.786133	405.327148
3243.203125	394.529877
3241.621094	398.967468
3240.038086	407.968842
3238.454102	456.530151
3236.870117	418.347229
3235.285156	401.480164
3233.700195	370.941925
3232.114258	451.365601
3230.527344	439.061890
3228.941406	323.491852
3227.353516	423.588165
3225.765625	431.036224
3224.177734	433.927582
3222.587891	359.463959
3220.999023	371.474365
3219.409180	368.319550
3217.818359	428.805786
3216.227539	434.722168
3214.635742	414.893005
3213.043945	379.939911
3211.451172	414.617279
3209.857422	415.992126
3208.263672	391.658691
3206.669922	406.645355
3205.075195	379.308685
3203.479492	415.439026
3201.883789	380.566559
3200.287109	403.085144
3198.690430	430.116241
3197.092773	457.129242
3195.495117	438.878967
3193.896484	401.041016
3192.297852	406.936157
3190.698242	408.307281
3189.097656	394.615753
3187.497070	385.450287
3185.896484	418.435455
3184.294922	386.698090
3182.692383	440.718964
3181.089844	412.002533
3179.486328	407.355682
3177.882812	432.764984
3176.278320	467.170197
3174.672852	417.459778
3173.067383	411.315887
3171.461914	394.671448
3169.855469	426.042908
3168.248047	386.909790
3166.640625	415.264465
3165.032227	421.120392
3163.423828	441.953827
3161.814453	410.355621
3160.205078	435.670044
3158.594727	425.047943
3156.984375	390.494507
3155.373047	447.198608
3153.760742	457.515137
3152.148438	406.544159
3150.535156	418.361420
3148.921875	439.132568
3147.307617	450.930878
3145.693359	434.360901
3144.078125	456.597809
3142.462891	362.471039
3140.846680	444.363037
3139.229492	426.326447
3137.612305	411.282196
3135.994141	442.427216
3134.375977	457.170593
3132.756836	393.005219
3131.137695	382.456482
3129.517578	492.415070
3127.897461	425.327850
3126.276367	443.025238
3124.654297	447.335205
3123.032227	445.699554
3121.409180	436.639099
3119.786133	432.038666
3118.162109	391.821136
3116.538086	437.683533
3114.913086	437.536682
3113.288086	441.837860
3111.662109	417.974701
3110.035156	428.206146
3108.408203	490.272125
3106.780273	479.742706
3105.152344	454.418335
3103.523438	414.313995
3101.894531	507.364105
3100.264648	476.140961
3098.634766	470.068146
3097.002930	539.362244
3095.372070	499.296326
3093.740234	500.605164
3092.107422	496.008179
3090.474609	470.754120
3088.840820	569.435608
3087.206055	454.215454
3085.571289	518.928711
3083.936523	508.437927
3082.300781	543.624451
3080.664062	497.786499
3079.027344	515.285828
3077.389648	557.793030
3075.751953	506.111267
3074.113281	523.589844
3072.473633	466.073212
3070.833984	490.902191
3069.193359	455.474243
3067.552734	514.071777
3065.911133	535.922668
3064.269531	538.677490
3062.626953	493.009827
3060.984375	538.314209
3059.340820	536.666321
3057.696289	496.908447
3056.051758	504.067322
3054.406250	452.628601
3052.760742	421.725006
3051.114258	512.340027
3049.467773	463.876953
3047.820312	484.200073
3046.171875	462.101318
3044.523438	445.864838
3042.874023	499.784424
3041.224609	449.946136
3039.574219	497.986267
3037.922852	489.058685
3036.271484	434.896149
3034.620117	431.831299
3032.967773	462.311584
3031.314453	479.650024
3029.661133	482.402557
3028.006836	434.161072
3026.351562	486.445404
3024.696289	516.855286
3023.041016	464.284546
3021.384766	408.839447
3019.727539	420.336609
3018.069336	455.089264
3016.412109	457.842041
3014.752930	462.045837
3013.093750	457.531830
3011.433594	450.116821
3009.773438	455.770233
3008.112305	438.203644
3006.451172	430.802490
3004.789062	406.006012
3003.126953	482.693390
3001.463867	482.529633
2999.799805	411.387146
2998.135742	432.968353
2996.470703	463.220245
2994.804688	525.287048
2993.138672	455.672882
2991.472656	493.116455
2989.805664	426.451477
2988.137695	434.977264
2986.469727	518.617249
2984.800781	454.899475
2983.130859	486.504852
2981.460938	476.237488
2979.791016	476.075592
2978.119141	484.566681
2976.448242	461.335144
2974.775391	433.795776
2973.102539	439.410980
2971.429688	473.826324
2969.755859	462.147400
2968.081055	428.888031
2966.406250	464.710327
2964.730469	489.002228
2963.053711	513.277527
2961.376953	446.988647
2959.700195	537.353088
2958.021484	486.900116
2956.343750	480.991058
2954.664062	446.379822
2952.984375	467.749908
2951.304688	477.630768
2949.624023	510.446198
2947.942383	494.505280
2946.260742	495.769501
2944.578125	484.141418
2942.894531	478.248718
2941.210938	495.262268
2939.526367	515.125916
2937.841797	565.014709
2936.156250	456.147247
2934.470703	506.021912
2932.784180	517.280762
2931.096680	422.825409
2929.409180	492.651825
2927.720703	489.628540
2926.032227	478.045227
2924.342773	485.014404
2922.652344	479.144531
2920.961914	524.597900
2919.270508	497.342590
2917.579102	558.428711
2915.886719	488.458008
2914.194336	489.714508
2912.500000	490.970032
2910.806641	526.367371
2909.111328	521.920837
2907.416016	533.115356
2905.720703	510.194336
2904.024414	512.860962
2902.327148	464.399170
2900.629883	468.499176
2898.931641	471.177094
2897.233398	556.138977
2895.533203	527.583679
2893.833984	446.591095
2892.133789	525.804749
2890.432617	498.705719
2888.730469	525.444214
2887.028320	513.937561
2885.325195	546.313660
2883.622070	496.606995
2881.917969	547.353149
2880.213867	549.993042
2878.508789	500.335999
2876.802734	517.118958
2875.096680	560.726013
2873.389648	525.235413
2871.682617	582.923950
2869.974609	517.819824
2868.265625	554.314087
2866.556641	586.553223
2864.846680	570.847168
2863.135742	574.877930
2861.424805	578.905884
2859.713867	588.563171
2858.000977	613.696838
2856.288086	583.937134
2854.575195	551.384583
2852.861328	594.784241
2851.146484	573.495178
2849.431641	649.175415
2847.715820	588.551636
2845.999023	586.944824
2844.282227	620.431213
2842.565430	645.475281
2840.846680	591.949402
2839.127930	503.404327
2837.409180	657.424133
2835.689453	557.707092
2833.968750	530.899841
2832.248047	663.746033
2830.526367	634.120850
2828.803711	622.707397
2827.081055	629.486938
2825.357422	587.318420
2823.633789	616.471558
2821.909180	612.066589
2820.183594	564.359680
2818.458008	603.265381
2816.731445	630.976440
2815.004883	619.594666
2813.277344	613.800659
2811.548828	555.018799
2809.820312	545.068787
2808.090820	565.783752
2806.360352	558.622864
2804.629883	554.251953
2802.898438	555.452454
2801.166992	567.785095
2799.434570	582.891357
2797.701172	657.785767
2795.967773	549.123657
2794.233398	554.492493
2792.499023	594.588135
2790.763672	654.098267
2789.027344	606.670898
2787.291016	616.175354
2785.553711	606.250854
2783.816406	682.316040
2782.078125	580.876831
2780.338867	616.707947
2778.599609	649.743347
2776.859375	628.744690
2775.118164	656.215149
2773.376953	636.612488
2771.634766	641.925537
2769.892578	598.830566
2768.148438	605.535339
2766.405273	579.066895
2764.661133	676.955383
2762.916016	585.570374
2761.169922	611.598206
2759.423828	680.391052
2757.676758	638.766113
2755.929688	668.885498
2754.181641	647.973145
2752.432617	643.613525
2750.683594	642.012207
2748.933594	683.106018
2747.182617	644.319580
2745.431641	677.126160
2743.680664	632.865295
2741.927734	635.395874
2740.174805	646.173645
2738.421875	676.184753
2736.666992	647.098022
2734.912109	668.847290
2733.157227	656.258240
2731.401367	620.346191
2729.644531	699.704468
2727.887695	648.715637
2726.129883	680.023071
2724.371094	670.192444
2722.612305	719.281128
2720.852539	679.312683
2719.091797	680.445068
2717.331055	684.313782
2715.569336	647.135193
2713.807617	668.792358
2712.044922	665.824768
2710.281250	664.225830
2708.517578	704.981445
2706.752930	695.175110
2704.987305	719.507751
2703.221680	689.230774
2701.455078	693.083252
2699.688477	673.747253
2697.920898	670.785217
2696.152344	722.341492
2694.383789	720.726746
2692.614258	727.284790
2690.843750	716.138855
2689.073242	709.083557
2687.301758	706.114685
2685.530273	768.430298
2683.756836	692.025269
2681.984375	735.274597
2680.209961	667.086060
2678.435547	721.178833
2676.660156	674.765503
2674.884766	723.388672
2673.108398	740.772949
2671.332031	754.076172
2669.553711	715.850403
2667.775391	758.969482
2665.997070	735.671631
2664.217773	763.855347
2662.437500	686.416687
2660.657227	713.244263
2658.875977	742.758789
2657.093750	722.211609
2655.310547	720.606445
2653.527344	727.111328
2651.744141	703.888794
2649.959961	823.841797
2648.174805	746.597900
2646.388672	712.595642
2644.602539	698.854187
2642.815430	718.838928
2641.028320	740.157654
2639.239258	719.682007
2637.451172	763.888428
2635.661133	771.700806
2633.871094	737.772278
2632.081055	792.691956
2630.289062	746.671448
2628.497070	794.824768
2626.705078	799.923035
2624.911133	732.445007
2623.117188	768.460999
2621.323242	769.533752
2619.528320	780.003235
2617.732422	795.833435
2615.935547	753.964600
2614.138672	736.265015
2612.340820	828.509338
2610.542969	773.271179
2608.744141	766.300537
2606.944336	774.065979
2605.144531	769.777161
2603.342773	845.787476
2601.541992	817.395691
2599.739258	819.782349
2597.936523	806.124878
2596.133789	803.167908
2594.329102	796.205200
2592.525391	794.589050
2590.719727	807.658569
2588.914062	774.011108
2587.107422	811.090942
2585.299805	813.471863
2583.492188	794.521545
2581.683594	872.865662
2579.875000	795.292908
2578.064453	804.333862
2576.254883	801.387390
2574.443359	872.964233
2572.631836	881.967712
2570.819336	821.815247
2569.006836	788.291626
2567.193359	867.744507
2565.378906	855.482300
2563.563477	885.721985
2561.748047	868.151917
2559.932617	812.111755
2558.115234	872.843994
2556.297852	818.167480
2554.479492	849.691711
2552.661133	848.065918
2550.841797	815.974487
2549.021484	851.438110
2547.201172	852.460327
2545.379883	853.481689
2543.557617	884.925598
2541.735352	834.365051
2539.912109	810.276611
2538.087891	841.701965
2536.263672	874.425781
2534.438477	829.221619
2532.612305	880.405640
2530.786133	923.636230
2528.958984	885.057312
2527.130859	897.928772
2525.302734	897.610229
2523.473633	855.128235
2521.643555	828.481873
2519.813477	907.188232
2517.982422	923.976807
2516.151367	924.964478
2514.318359	904.906921
2512.485352	932.196350
2510.652344	870.091309
2508.817383	947.300476
2506.982422	902.308105
2505.147461	982.076538
2503.310547	916.103882
2501.473633	976.130310
2499.636719	929.879395
2497.797852	1025.256714
2495.959961	968.536072
2494.120117	941.988708
2492.280273	957.369507
2490.439453	937.390686
2488.597656	1048.299805
2486.755859	966.813599
2484.913086	944.236572
2483.069336	983.120544
2481.225586	1063.796631
2479.379883	962.823975
2477.535156	958.563049
2475.688477	941.250183
2473.841797	1002.250305
2471.995117	978.411072
2470.146484	1019.792847
2468.297852	1067.662964
2466.448242	972.151978
2464.598633	990.042786
2462.748047	940.205017
2460.896484	980.223938
2459.044922	1046.239990
2457.192383	1015.947449
2455.338867	1045.493042
2453.484375	1011.322266
2451.629883	1087.627686
2449.774414	980.723511
2447.918945	1034.910400
2446.062500	1018.963989
2444.205078	1043.253784
2442.346680	1096.062500
2440.488281	1077.517456
2438.628906	1069.354980
2436.768555	1063.789673
2434.908203	990.874451
2433.046875	1094.103760
2431.184570	1071.708496
2429.322266	1070.031006
2427.458984	1054.127075
2425.594727	1064.093262
2423.730469	1080.514404
2421.865234	1060.747070
2419.999023	1071.991089
2418.132812	1088.391235
2416.265625	1053.154175
2414.397461	1046.325928
2412.528320	1102.697876
2410.659180	1042.997314
2408.789062	1086.441772
2406.918945	1073.168945
2405.047852	1068.920410
2403.175781	1087.847778
2401.302734	1133.786987
2399.429688	1193.844238
2397.555664	1116.255127
2395.680664	1105.569946
2393.805664	1111.598389
2391.929688	1127.899292
2390.052734	1130.062500
2388.174805	1106.549805
2386.296875	1121.551147
2384.417969	1118.582520
2382.539062	1138.697510
2380.659180	1143.415527
2378.778320	1146.848511
2376.896484	1192.549683
2375.014648	1144.743164
2373.131836	1198.091919
2371.248047	1137.521851
2369.364258	1162.694336
2367.479492	1192.963013
2365.593750	1207.871582
2363.708008	1195.937256
2361.820312	1144.416504
2359.933594	1191.245483
2358.044922	1171.671387
2356.156250	1217.180542
2354.266602	1198.886230
2352.375977	1151.280884
2350.485352	1201.845459
2348.593750	1201.412109
2346.701172	1193.337402
2344.808594	1205.638184
2342.915039	1256.109375
2341.020508	1192.046387
2339.125000	1148.377197
2337.229492	1217.882935
2335.333008	1246.672119
2333.435547	1204.300049
2331.538086	1233.072876
2329.639648	1218.663696
2327.740234	1219.492432
2325.840820	1211.440674
2323.940430	1304.839722
2322.039062	1244.790527
2320.136719	1263.347778
2318.234375	1241.357300
2316.331055	1259.901855
2314.426758	1248.054199
2312.522461	1274.174438
2310.617188	1286.362061
2308.710938	1230.262817
2306.804688	1299.334473
2304.897461	1271.067383
2302.989258	1340.073853
2301.080078	1285.297974
2299.170898	1207.843506
2297.260742	1313.385132
2295.349609	1276.334473
2293.437500	1268.307495
2291.525391	1305.656494
2289.612305	1331.639526
2287.699219	1287.078735
2285.785156	1324.379517
2283.870117	1318.865356
2281.954102	1376.255005
2280.037109	1270.121826
2278.120117	1330.001221
2276.202148	1319.465454
2274.284180	1364.208984
2272.365234	1343.622070
2270.445312	1364.473755
2268.524414	1394.093628
2266.603516	1303.273682
2264.680664	1376.780151
2262.758789	1356.224854
2260.834961	1351.973022
2258.911133	1385.299927
2256.986328	1398.569092
2255.060547	1445.622070
2253.134766	1376.282227
2251.207031	1432.063599
2249.280273	1401.536499
2247.351562	1426.022461
2245.422852	1447.991699
2243.493164	1422.486816
2241.562500	1421.968994
2239.630859	1413.963257
2237.699219	1459.606812
2235.766602	1414.180542
2233.833984	1417.405151
2231.899414	1409.411743
2229.964844	1498.589233
2228.029297	1408.384521
2226.093750	1415.339844
2224.157227	1485.751709
2222.219727	1549.892334
2220.281250	1515.754028
2218.342773	1471.696533
2216.403320	1445.066284
2214.462891	1399.824097
2212.521484	1535.892090
2210.580078	1517.954956
2208.637695	1502.511963
2206.694336	1529.249146
2204.750000	1450.582275
2202.805664	1578.945923
2200.860352	1491.645386
2198.915039	1510.915527
2196.967773	1532.647339
2195.020508	1532.086914
2193.072266	1505.547729
2191.124023	1598.982178
2189.173828	1509.391357
2187.223633	1585.455078
2185.272461	1593.521973
2183.321289	1599.113037
2181.369141	1552.855469
2179.416016	1564.626343
2177.461914	1518.414551
2175.507812	1614.034790
2173.551758	1540.721558
2171.595703	1607.923950
2169.639648	1629.504883
2167.681641	1594.433472
2165.723633	1602.464478
2163.764648	1595.725464
2161.805664	1553.324707
2159.845703	1598.243530
2157.883789	1659.105713
2155.922852	1624.098511
2153.959961	1635.783325
2151.997070	1615.541138
2150.033203	1676.306274
2148.068359	1665.877197
2146.103516	1653.002930
2144.136719	1640.137695
2142.169922	1697.127319
2140.203125	1680.579956
2138.234375	1622.412720
2136.265625	1665.880859
2134.295898	1676.280640
2132.326172	1654.871460
2130.354492	1719.064087
2128.382812	1692.765381
2126.410156	1688.477417
2124.436523	1654.880737
2122.462891	1717.756836
2120.488281	1660.985596
2118.512695	1696.973145
2116.536133	1731.714355
2114.559570	1714.009766
2112.582031	1770.653687
2110.603516	1770.001465
2108.624023	1769.349365
2106.644531	1738.265625
2104.664062	1791.165161
2102.682617	1781.990356
2100.701172	1763.094482
2098.717773	1792.831299
2096.734375	1735.063721
2094.750000	1775.719482
2092.765625	1767.779541
2090.779297	1803.537842
2088.792969	1777.394287
2086.805664	1798.568359
2084.818359	1797.904419
2082.829102	1782.697754
2080.839844	1805.056885
2078.849609	1834.665161
2076.859375	1824.302856
